*RAS_DATA_START
*RAS_HEADER_START
*DISP_LINE_COLOR "4294901760"
*FILE_COMMENT ""
*FILE_MD5 ""
*FILE_MEMO ""
*FILE_OPERATOR "Administrator"
*FILE_PACKAGE_NAME ""
*FILE_PART_ID "GeneralMeasurement"
*FILE_SAMPLE ""
*FILE_SYSTEM_NAME "SmartLab"
*FILE_TYPE "RAS_RAW"
*FILE_USERGROUP "Administrators"
*FILE_VERSION "1"
*HW_ATTACHMENT_ID "ATT0025"
*HW_ATTACHMENT_NAME "Standard"
*HW_ATTACHMENT_NAME_INTERNAL "Standard"
*HW_COUNTER_ID-0 "CUT0051"
*HW_COUNTER_ID-1 "CMC0020"
*HW_COUNTER_MONOCHRO_ID "CMC0020"
*HW_COUNTER_MONOCHRO_NAME "None"
*HW_COUNTER_MONOCHRO_NAME_INTERNAL "None"
*HW_COUNTER_NAME_INTERNAL "HyPix3000(H)"
*HW_COUNTER_NAME-0 "HyPix3000(H)"
*HW_COUNTER_NAME-1 "None"
*HW_COUNTER_SELECT_NAME "HyPix3000(H)"
*HW_EXTERNAL_CONTROLLER_NAME "None"
*HW_EXTERNAL_CONTROLLER_NAME_INTERNAL "None"
*HW_GONIOMETER_ID "GON0021"
*HW_GONIOMETER_NAME "StandardEnc"
*HW_GONIOMETER_NAME_INTERNAL "StandardEnc"
*HW_GONIOMETER_RADIUS-0 "90.0"
*HW_GONIOMETER_RADIUS-1 "114.0"
*HW_GONIOMETER_RADIUS-2 "190.0"
*HW_GONIOMETER_RADIUS-3 "300.0"
*HW_GONIOMETER_RADIUS-4 "187.0"
*HW_GONIOMETER_RADIUS-5 "300.0"
*HW_GONIOMETER_RADIUS-6 "113.0000"
*HW_GONIOMETER_RADIUS-7 "331.0"
*HW_I_CBO_ID "CBO0021"
*HW_I_CBO_NAME "CBO"
*HW_I_CBO_NAME_INTERNAL "CBO"
*HW_I_MONOCHRO_ID "ISO0021"
*HW_I_MONOCHRO_NAME "IPS_adaptor"
*HW_I_MONOCHRO_NAME_INTERNAL "IPS_adaptor"
*HW_I_OPT_ID-0 "CBO0021"
*HW_I_OPT_ID-1 "ISL0021"
*HW_I_PRIMARY_NAME_INTERNAL "Standard"
*HW_I_SLIT_ID "ISL0021"
*HW_I_SLIT_NAME "Auto"
*HW_I_SLIT_NAME_INTERNAL "Auto"
*HW_R_ATTENUATER_AUTOMODE "0"
*HW_R_ATTENUATER_ID "ATN0020"
*HW_R_ATTENUATER_NAME "No_unit"
*HW_R_ATTENUATOR_NAME_INTERNAL "No_unit"
*HW_R_OPT_ID-0 "RSS0022"
*HW_R_OPT_ID-1 "RCR0022"
*HW_R_OPT_ID-2 "RSO0021"
*HW_R_OPT_ID-3 "RRS0022"
*HW_R_OPT_ID-4 "ATN0020"
*HW_R_ROD_ID "RCR0022"
*HW_R_ROD_NAME "ROD_adaptor"
*HW_R_ROD_NAME_INTERNAL "ROD_adaptor"
*HW_R_RPS_ID "RSO0021"
*HW_R_RPS_NAME "RPS_adaptor"
*HW_R_RPS_NAME_INTERNAL "RPS_adaptor"
*HW_R_RS_ID "RRS0022"
*HW_R_RS_NAME "Virtual"
*HW_R_RS_NAME_INTERNAL "Virtual"
*HW_R_SS_ID "RSS0022"
*HW_R_SS_NAME "Auto_Zr"
*HW_R_SS_NAME_INTERNAL "Auto_Zr"
*HW_ROBOT_NAME "No_unit"
*HW_ROBOT_NAME_INTERNAL "No_unit"
*HW_SAMPLE_CAMERA_NAME "SampleCamera_Std"
*HW_SAMPLE_CAMERA_NAME_INTERNAL "SampleCamera_Std"
*HW_SAMPLE_HOLDER_ID "SMP0021"
*HW_SAMPLE_HOLDER_NAME "Z_ChiPhi"
*HW_SAMPLE_HOLDER_NAME_INTERNAL "Z_ChiPhi"
*HW_SAMPLE_NAME "WaferSample"
*HW_SAMPLE_NAME_INTERNAL "WaferSample"
*HW_SAMPLE_PLATE_NAME "ForWafer"
*HW_SAMPLE_PLATE_NAME_INTERNAL "ForWafer"
*HW_SAMPLE_SPACER_NAME "0-3mm"
*HW_SAMPLE_SPACER_NAME_INTERNAL "0-3mm"
*HW_USERINFO_CATALOG_NO ""
*HW_USERINFO_INSTRUMENT_ID ""
*HW_USERINFO_INSTRUMENT_NAME ""
*HW_USERINFO_MODEL ""
*HW_USERINFO_ORDER_NO ""
*HW_USERINFO_SERIAL_NO ""
*HW_USERINFO_VERIFY_INSTRUMENT_ID "00-07-fe-01-14-97"
*HW_VER_RCD_COUNTER_UNIT "1.0.1"
*HW_VER_RCD_CPU "3.2.2"
*HW_VER_RCD_FPGA "1.2.3"
*HW_VER_RCD_GONIO_UNIT "6.1.1"
*HW_VER_RCD_INCIDENT_UNIT "6.1.1"
*HW_VER_RCD_RECEIVING_UNIT "6.1.1"
*HW_VER_RCD_TYPE "RINC"
*HW_VER_XGC_CPU "3.2.2"
*HW_VER_XGC_CW "1.4.9"
*HW_VER_XGC_HV "1.4.9"
*HW_VER_XGC_RS1 "1.4.9"
*HW_VER_XGC_RS2 "N/A"
*HW_VER_XGC_RT "N/A"
*HW_VER_XGC_TYPE "RINC"
*HW_XG_CURRENT_UNIT "mA"
*HW_XG_FOCUS "0.4mm x 12mm"
*HW_XG_FOCUS_TYPE "LongFine"
*HW_XG_TARGET_ATOMIC_NUMBER "29"
*HW_XG_TARGET_NAME "Cu"
*HW_XG_TYPE "Hermetic"
*HW_XG_VOLTAGE_UNIT "kV"
*HW_XG_WAVE_LENGTH_ALPHA1 "1.540593"
*HW_XG_WAVE_LENGTH_ALPHA2 "1.544414"
*HW_XG_WAVE_LENGTH_BETA "1.392246"
*HW_XG_WAVE_LENGTH_UNIT "Angstrom"
*MEAS_COND_AXIS_NAME_INTERNAL-0 "ThetaS"
*MEAS_COND_AXIS_NAME_INTERNAL-1 "ThetaD"
*MEAS_COND_AXIS_NAME_INTERNAL-10 "CBOType"
*MEAS_COND_AXIS_NAME_INTERNAL-11 "CBO-M"
*MEAS_COND_AXIS_NAME_INTERNAL-12 "CBO"
*MEAS_COND_AXIS_NAME_INTERNAL-13 "IncidentSollerSlit"
*MEAS_COND_AXIS_NAME_INTERNAL-14 "IncidentSlitBox"
*MEAS_COND_AXIS_NAME_INTERNAL-15 "IncidentSlitBox-_Axis"
*MEAS_COND_AXIS_NAME_INTERNAL-16 "SlitDS"
*MEAS_COND_AXIS_NAME_INTERNAL-17 "Zs"
*MEAS_COND_AXIS_NAME_INTERNAL-18 "IncidentAxdSlit"
*MEAS_COND_AXIS_NAME_INTERNAL-19 "LLS"
*MEAS_COND_AXIS_NAME_INTERNAL-2 "TwoTheta"
*MEAS_COND_AXIS_NAME_INTERNAL-20 "DHLSlit"
*MEAS_COND_AXIS_NAME_INTERNAL-21 "Chi"
*MEAS_COND_AXIS_NAME_INTERNAL-22 "Phi"
*MEAS_COND_AXIS_NAME_INTERNAL-23 "Z"
*MEAS_COND_AXIS_NAME_INTERNAL-24 "Alpha"
*MEAS_COND_AXIS_NAME_INTERNAL-25 "Beta"
*MEAS_COND_AXIS_NAME_INTERNAL-26 "ReceivingSlitBox1"
*MEAS_COND_AXIS_NAME_INTERNAL-27 "ReceivingSlitBox1-_Axis"
*MEAS_COND_AXIS_NAME_INTERNAL-28 "SlitSS"
*MEAS_COND_AXIS_NAME_INTERNAL-29 "Zr"
*MEAS_COND_AXIS_NAME_INTERNAL-3 "Omega"
*MEAS_COND_AXIS_NAME_INTERNAL-30 "Filter"
*MEAS_COND_AXIS_NAME_INTERNAL-31 "PSA"
*MEAS_COND_AXIS_NAME_INTERNAL-32 "ReceivingSollerSlit"
*MEAS_COND_AXIS_NAME_INTERNAL-33 "ReceivingSlitBox2"
*MEAS_COND_AXIS_NAME_INTERNAL-34 "ReceivingSlitBox2-_Axis"
*MEAS_COND_AXIS_NAME_INTERNAL-35 "SlitRS"
*MEAS_COND_AXIS_NAME_INTERNAL-36 "ModuleSensorType"
*MEAS_COND_AXIS_NAME_INTERNAL-37 "PHA"
*MEAS_COND_AXIS_NAME_INTERNAL-38 "DetectorBeamStop"
*MEAS_COND_AXIS_NAME_INTERNAL-39 "DetectorFilter"
*MEAS_COND_AXIS_NAME_INTERNAL-4 "TwoThetaTheta"
*MEAS_COND_AXIS_NAME_INTERNAL-40 "DedicatedHolder"
*MEAS_COND_AXIS_NAME_INTERNAL-41 "Target_TargetTime"
*MEAS_COND_AXIS_NAME_INTERNAL-42 "Target_XrayOnTime"
*MEAS_COND_AXIS_NAME_INTERNAL-43 "Target_TMPTime"
*MEAS_COND_AXIS_NAME_INTERNAL-44 "Target_RPTime"
*MEAS_COND_AXIS_NAME_INTERNAL-45 "Target_FilamentTime"
*MEAS_COND_AXIS_NAME_INTERNAL-46 "Target_IG"
*MEAS_COND_AXIS_NAME_INTERNAL-47 "Target_GP"
*MEAS_COND_AXIS_NAME_INTERNAL-48 "Target_FC"
*MEAS_COND_AXIS_NAME_INTERNAL-49 "HVPS_HVPSTime"
*MEAS_COND_AXIS_NAME_INTERNAL-5 "TwoThetaOmega"
*MEAS_COND_AXIS_NAME_INTERNAL-50 "HVPS_Type1Time"
*MEAS_COND_AXIS_NAME_INTERNAL-51 "HVPS_Type2Time"
*MEAS_COND_AXIS_NAME_INTERNAL-52 "HVPS_Type3Time"
*MEAS_COND_AXIS_NAME_INTERNAL-53 "CW_IERTime"
*MEAS_COND_AXIS_NAME_INTERNAL-54 "CW_ECTime"
*MEAS_COND_AXIS_NAME_INTERNAL-55 "CW_Flow1"
*MEAS_COND_AXIS_NAME_INTERNAL-56 "CW_Temperature1"
*MEAS_COND_AXIS_NAME_INTERNAL-57 "CW_Pressure1"
*MEAS_COND_AXIS_NAME_INTERNAL-58 "CW_PressureIn"
*MEAS_COND_AXIS_NAME_INTERNAL-59 "CW_PressureOut"
*MEAS_COND_AXIS_NAME_INTERNAL-6 "OmegaTwoTheta"
*MEAS_COND_AXIS_NAME_INTERNAL-60 "CW_Flow2"
*MEAS_COND_AXIS_NAME_INTERNAL-61 "CW_Temperature2"
*MEAS_COND_AXIS_NAME_INTERNAL-62 "CW_Pressure2"
*MEAS_COND_AXIS_NAME_INTERNAL-63 "RE_EnclosureTemp"
*MEAS_COND_AXIS_NAME_INTERNAL-64 "RE_EnclosureHummidity"
*MEAS_COND_AXIS_NAME_INTERNAL-65 "RE_CabinetTemp"
*MEAS_COND_AXIS_NAME_INTERNAL-66 "RE_RPTemp"
*MEAS_COND_AXIS_NAME_INTERNAL-67 "RE_ShutterAXrayOnTime"
*MEAS_COND_AXIS_NAME_INTERNAL-68 "RE_ShutterATimes"
*MEAS_COND_AXIS_NAME_INTERNAL-69 "RE_ShutterAOpenCloseTime"
*MEAS_COND_AXIS_NAME_INTERNAL-7 "Ts"
*MEAS_COND_AXIS_NAME_INTERNAL-70 "RE_ShutterACloseOpenTime"
*MEAS_COND_AXIS_NAME_INTERNAL-71 "RE_ShutterBXrayOnTime"
*MEAS_COND_AXIS_NAME_INTERNAL-72 "RE_ShutterBTimes"
*MEAS_COND_AXIS_NAME_INTERNAL-73 "RE_ShutterBOpenCloseTime"
*MEAS_COND_AXIS_NAME_INTERNAL-74 "RE_ShutterBCloseOpenTime"
*MEAS_COND_AXIS_NAME_INTERNAL-75 "RE_XrayWarningRamp"
*MEAS_COND_AXIS_NAME_INTERNAL-76 "RE_ShutterAInstallation"
*MEAS_COND_AXIS_NAME_INTERNAL-77 "RE_ShutterARamp"
*MEAS_COND_AXIS_NAME_INTERNAL-78 "RE_ShutterBInstallation"
*MEAS_COND_AXIS_NAME_INTERNAL-79 "RE_ShutterBRamp"
*MEAS_COND_AXIS_NAME_INTERNAL-8 "PrimaryGeometry"
*MEAS_COND_AXIS_NAME_INTERNAL-80 "RE_ExtShutterCLS"
*MEAS_COND_AXIS_NAME_INTERNAL-81 "RE_ExtXrayOFF"
*MEAS_COND_AXIS_NAME_INTERNAL-82 "RE_ExtSafetyCircuit"
*MEAS_COND_AXIS_NAME_INTERNAL-83 "Version_CPU"
*MEAS_COND_AXIS_NAME_INTERNAL-84 "Version_RS1"
*MEAS_COND_AXIS_NAME_INTERNAL-85 "Version_RS2"
*MEAS_COND_AXIS_NAME_INTERNAL-86 "Version_HV"
*MEAS_COND_AXIS_NAME_INTERNAL-87 "Version_CW"
*MEAS_COND_AXIS_NAME_INTERNAL-88 "Version_RT"
*MEAS_COND_AXIS_NAME_INTERNAL-89 "Lens"
*MEAS_COND_AXIS_NAME_INTERNAL-9 "PrimaryMirrorType"
*MEAS_COND_AXIS_NAME_INTERNAL-90 "IncidentPrimary"
*MEAS_COND_AXIS_NAME_INTERNAL-91 "IncidentMonochromator"
*MEAS_COND_AXIS_NAME_INTERNAL-92 "ReceivingOptics"
*MEAS_COND_AXIS_NAME_INTERNAL-93 "CounterMonochromatorKind"
*MEAS_COND_AXIS_NAME-0 "ThetaS"
*MEAS_COND_AXIS_NAME-1 "ThetaD"
*MEAS_COND_AXIS_NAME-10 "CBOType"
*MEAS_COND_AXIS_NAME-11 "CBO-M"
*MEAS_COND_AXIS_NAME-12 "CBO"
*MEAS_COND_AXIS_NAME-13 "IncidentSollerSlit"
*MEAS_COND_AXIS_NAME-14 "IncidentSlitBox"
*MEAS_COND_AXIS_NAME-15 "IncidentSlitBox-_Axis"
*MEAS_COND_AXIS_NAME-16 "SlitDS"
*MEAS_COND_AXIS_NAME-17 "Zs"
*MEAS_COND_AXIS_NAME-18 "IncidentAxdSlit"
*MEAS_COND_AXIS_NAME-19 "LLS"
*MEAS_COND_AXIS_NAME-2 "TwoTheta"
*MEAS_COND_AXIS_NAME-20 "DHLSlit"
*MEAS_COND_AXIS_NAME-21 "Chi"
*MEAS_COND_AXIS_NAME-22 "Phi"
*MEAS_COND_AXIS_NAME-23 "Z"
*MEAS_COND_AXIS_NAME-24 "Alpha"
*MEAS_COND_AXIS_NAME-25 "Beta"
*MEAS_COND_AXIS_NAME-26 "ReceivingSlitBox1"
*MEAS_COND_AXIS_NAME-27 "ReceivingSlitBox1-_Axis"
*MEAS_COND_AXIS_NAME-28 "SlitSS"
*MEAS_COND_AXIS_NAME-29 "Zr"
*MEAS_COND_AXIS_NAME-3 "Omega"
*MEAS_COND_AXIS_NAME-30 "Filter"
*MEAS_COND_AXIS_NAME-31 "PSA"
*MEAS_COND_AXIS_NAME-32 "ReceivingSollerSlit"
*MEAS_COND_AXIS_NAME-33 "ReceivingSlitBox2"
*MEAS_COND_AXIS_NAME-34 "ReceivingSlitBox2-_Axis"
*MEAS_COND_AXIS_NAME-35 "SlitRS"
*MEAS_COND_AXIS_NAME-36 "ModuleSensorType"
*MEAS_COND_AXIS_NAME-37 "PHA"
*MEAS_COND_AXIS_NAME-38 "DetectorBeamStop"
*MEAS_COND_AXIS_NAME-39 "DetectorFilter"
*MEAS_COND_AXIS_NAME-4 "TwoThetaTheta"
*MEAS_COND_AXIS_NAME-40 "DedicatedHolder"
*MEAS_COND_AXIS_NAME-41 "Target_TargetTime"
*MEAS_COND_AXIS_NAME-42 "Target_XrayOnTime"
*MEAS_COND_AXIS_NAME-43 "Target_TMPTime"
*MEAS_COND_AXIS_NAME-44 "Target_RPTime"
*MEAS_COND_AXIS_NAME-45 "Target_FilamentTime"
*MEAS_COND_AXIS_NAME-46 "Target_IG"
*MEAS_COND_AXIS_NAME-47 "Target_GP"
*MEAS_COND_AXIS_NAME-48 "Target_FC"
*MEAS_COND_AXIS_NAME-49 "HVPS_HVPSTime"
*MEAS_COND_AXIS_NAME-5 "TwoThetaOmega"
*MEAS_COND_AXIS_NAME-50 "HVPS_Type1Time"
*MEAS_COND_AXIS_NAME-51 "HVPS_Type2Time"
*MEAS_COND_AXIS_NAME-52 "HVPS_Type3Time"
*MEAS_COND_AXIS_NAME-53 "CW_IERTime"
*MEAS_COND_AXIS_NAME-54 "CW_ECTime"
*MEAS_COND_AXIS_NAME-55 "CW_Flow1"
*MEAS_COND_AXIS_NAME-56 "CW_Temperature1"
*MEAS_COND_AXIS_NAME-57 "CW_Pressure1"
*MEAS_COND_AXIS_NAME-58 "CW_PressureIn"
*MEAS_COND_AXIS_NAME-59 "CW_PressureOut"
*MEAS_COND_AXIS_NAME-6 "OmegaTwoTheta"
*MEAS_COND_AXIS_NAME-60 "CW_Flow2"
*MEAS_COND_AXIS_NAME-61 "CW_Temperature2"
*MEAS_COND_AXIS_NAME-62 "CW_Pressure2"
*MEAS_COND_AXIS_NAME-63 "RE_EnclosureTemp"
*MEAS_COND_AXIS_NAME-64 "RE_EnclosureHummidity"
*MEAS_COND_AXIS_NAME-65 "RE_CabinetTemp"
*MEAS_COND_AXIS_NAME-66 "RE_RPTemp"
*MEAS_COND_AXIS_NAME-67 "RE_ShutterAXrayOnTime"
*MEAS_COND_AXIS_NAME-68 "RE_ShutterATimes"
*MEAS_COND_AXIS_NAME-69 "RE_ShutterAOpenCloseTime"
*MEAS_COND_AXIS_NAME-7 "Ts"
*MEAS_COND_AXIS_NAME-70 "RE_ShutterACloseOpenTime"
*MEAS_COND_AXIS_NAME-71 "RE_ShutterBXrayOnTime"
*MEAS_COND_AXIS_NAME-72 "RE_ShutterBTimes"
*MEAS_COND_AXIS_NAME-73 "RE_ShutterBOpenCloseTime"
*MEAS_COND_AXIS_NAME-74 "RE_ShutterBCloseOpenTime"
*MEAS_COND_AXIS_NAME-75 "RE_XrayWarningRamp"
*MEAS_COND_AXIS_NAME-76 "RE_ShutterAInstallation"
*MEAS_COND_AXIS_NAME-77 "RE_ShutterARamp"
*MEAS_COND_AXIS_NAME-78 "RE_ShutterBInstallation"
*MEAS_COND_AXIS_NAME-79 "RE_ShutterBRamp"
*MEAS_COND_AXIS_NAME-8 "PrimaryGeometry"
*MEAS_COND_AXIS_NAME-80 "RE_ExtShutterCLS"
*MEAS_COND_AXIS_NAME-81 "RE_ExtXrayOFF"
*MEAS_COND_AXIS_NAME-82 "RE_ExtSafetyCircuit"
*MEAS_COND_AXIS_NAME-83 "Version_CPU"
*MEAS_COND_AXIS_NAME-84 "Version_RS1"
*MEAS_COND_AXIS_NAME-85 "Version_RS2"
*MEAS_COND_AXIS_NAME-86 "Version_HV"
*MEAS_COND_AXIS_NAME-87 "Version_CW"
*MEAS_COND_AXIS_NAME-88 "Version_RT"
*MEAS_COND_AXIS_NAME-89 "Lens"
*MEAS_COND_AXIS_NAME-9 "PrimaryMirrorType"
*MEAS_COND_AXIS_NAME-90 "IncidentPrimary"
*MEAS_COND_AXIS_NAME-91 "IncidentMonochromator"
*MEAS_COND_AXIS_NAME-92 "ReceivingOptics"
*MEAS_COND_AXIS_NAME-93 "CounterMonochromatorKind"
*MEAS_COND_AXIS_OFFSET-0 "1.5548"
*MEAS_COND_AXIS_OFFSET-1 "-0.2629"
*MEAS_COND_AXIS_OFFSET-10 "0"
*MEAS_COND_AXIS_OFFSET-11 "0"
*MEAS_COND_AXIS_OFFSET-12 "0"
*MEAS_COND_AXIS_OFFSET-13 "0"
*MEAS_COND_AXIS_OFFSET-14 "0"
*MEAS_COND_AXIS_OFFSET-15 "0"
*MEAS_COND_AXIS_OFFSET-16 "0"
*MEAS_COND_AXIS_OFFSET-17 "0"
*MEAS_COND_AXIS_OFFSET-18 "0"
*MEAS_COND_AXIS_OFFSET-19 "0"
*MEAS_COND_AXIS_OFFSET-2 "1.2919"
*MEAS_COND_AXIS_OFFSET-20 "0"
*MEAS_COND_AXIS_OFFSET-21 "0"
*MEAS_COND_AXIS_OFFSET-22 "0"
*MEAS_COND_AXIS_OFFSET-23 "0"
*MEAS_COND_AXIS_OFFSET-24 "0"
*MEAS_COND_AXIS_OFFSET-25 "0"
*MEAS_COND_AXIS_OFFSET-26 "0"
*MEAS_COND_AXIS_OFFSET-27 "0"
*MEAS_COND_AXIS_OFFSET-28 "0"
*MEAS_COND_AXIS_OFFSET-29 "0"
*MEAS_COND_AXIS_OFFSET-3 "1.5548"
*MEAS_COND_AXIS_OFFSET-30 "0"
*MEAS_COND_AXIS_OFFSET-31 "0"
*MEAS_COND_AXIS_OFFSET-32 "0"
*MEAS_COND_AXIS_OFFSET-33 "0"
*MEAS_COND_AXIS_OFFSET-34 "0"
*MEAS_COND_AXIS_OFFSET-35 "0"
*MEAS_COND_AXIS_OFFSET-36 "0"
*MEAS_COND_AXIS_OFFSET-37 "0"
*MEAS_COND_AXIS_OFFSET-38 "0"
*MEAS_COND_AXIS_OFFSET-39 "0"
*MEAS_COND_AXIS_OFFSET-4 "0"
*MEAS_COND_AXIS_OFFSET-40 "0"
*MEAS_COND_AXIS_OFFSET-41 "0"
*MEAS_COND_AXIS_OFFSET-42 "0"
*MEAS_COND_AXIS_OFFSET-43 "0"
*MEAS_COND_AXIS_OFFSET-44 "0"
*MEAS_COND_AXIS_OFFSET-45 "0"
*MEAS_COND_AXIS_OFFSET-46 "0"
*MEAS_COND_AXIS_OFFSET-47 "0"
*MEAS_COND_AXIS_OFFSET-48 "0"
*MEAS_COND_AXIS_OFFSET-49 "0"
*MEAS_COND_AXIS_OFFSET-5 "0"
*MEAS_COND_AXIS_OFFSET-50 "0"
*MEAS_COND_AXIS_OFFSET-51 "0"
*MEAS_COND_AXIS_OFFSET-52 "0"
*MEAS_COND_AXIS_OFFSET-53 "0"
*MEAS_COND_AXIS_OFFSET-54 "0"
*MEAS_COND_AXIS_OFFSET-55 "0"
*MEAS_COND_AXIS_OFFSET-56 "0"
*MEAS_COND_AXIS_OFFSET-57 "0"
*MEAS_COND_AXIS_OFFSET-58 "0"
*MEAS_COND_AXIS_OFFSET-59 "0"
*MEAS_COND_AXIS_OFFSET-6 "0"
*MEAS_COND_AXIS_OFFSET-60 "0"
*MEAS_COND_AXIS_OFFSET-61 "0"
*MEAS_COND_AXIS_OFFSET-62 "0"
*MEAS_COND_AXIS_OFFSET-63 "0"
*MEAS_COND_AXIS_OFFSET-64 "0"
*MEAS_COND_AXIS_OFFSET-65 "0"
*MEAS_COND_AXIS_OFFSET-66 "0"
*MEAS_COND_AXIS_OFFSET-67 "0"
*MEAS_COND_AXIS_OFFSET-68 "0"
*MEAS_COND_AXIS_OFFSET-69 "0"
*MEAS_COND_AXIS_OFFSET-7 "0"
*MEAS_COND_AXIS_OFFSET-70 "0"
*MEAS_COND_AXIS_OFFSET-71 "0"
*MEAS_COND_AXIS_OFFSET-72 "0"
*MEAS_COND_AXIS_OFFSET-73 "0"
*MEAS_COND_AXIS_OFFSET-74 "0"
*MEAS_COND_AXIS_OFFSET-75 "0"
*MEAS_COND_AXIS_OFFSET-76 "0"
*MEAS_COND_AXIS_OFFSET-77 "0"
*MEAS_COND_AXIS_OFFSET-78 "0"
*MEAS_COND_AXIS_OFFSET-79 "0"
*MEAS_COND_AXIS_OFFSET-8 "0"
*MEAS_COND_AXIS_OFFSET-80 "0"
*MEAS_COND_AXIS_OFFSET-81 "0"
*MEAS_COND_AXIS_OFFSET-82 "0"
*MEAS_COND_AXIS_OFFSET-83 "0"
*MEAS_COND_AXIS_OFFSET-84 "0"
*MEAS_COND_AXIS_OFFSET-85 "0"
*MEAS_COND_AXIS_OFFSET-86 "0"
*MEAS_COND_AXIS_OFFSET-87 "0"
*MEAS_COND_AXIS_OFFSET-88 "0"
*MEAS_COND_AXIS_OFFSET-89 "0"
*MEAS_COND_AXIS_OFFSET-9 "0"
*MEAS_COND_AXIS_OFFSET-90 "0"
*MEAS_COND_AXIS_OFFSET-91 "0"
*MEAS_COND_AXIS_OFFSET-92 "0"
*MEAS_COND_AXIS_OFFSET-93 "0"
*MEAS_COND_AXIS_POSITION-0 "0.0000"
*MEAS_COND_AXIS_POSITION-1 "0.0000"
*MEAS_COND_AXIS_POSITION-10 "Type1"
*MEAS_COND_AXIS_POSITION-11 "0"
*MEAS_COND_AXIS_POSITION-12 "PB"
*MEAS_COND_AXIS_POSITION-13 "Soller_slit_2.5deg"
*MEAS_COND_AXIS_POSITION-14 "1.000mm"
*MEAS_COND_AXIS_POSITION-15 "1.000000"
*MEAS_COND_AXIS_POSITION-16 "1.000mm"
*MEAS_COND_AXIS_POSITION-17 "-0.6371875"
*MEAS_COND_AXIS_POSITION-18 "5mm"
*MEAS_COND_AXIS_POSITION-19 "5mm"
*MEAS_COND_AXIS_POSITION-2 "0.0000"
*MEAS_COND_AXIS_POSITION-20 "5mm"
*MEAS_COND_AXIS_POSITION-21 "0.000"
*MEAS_COND_AXIS_POSITION-22 "0.000"
*MEAS_COND_AXIS_POSITION-23 "-0.5876"
*MEAS_COND_AXIS_POSITION-24 "90.000"
*MEAS_COND_AXIS_POSITION-25 "0.000"
*MEAS_COND_AXIS_POSITION-26 "1.000mm"
*MEAS_COND_AXIS_POSITION-27 "1.000000"
*MEAS_COND_AXIS_POSITION-28 "1.000mm"
*MEAS_COND_AXIS_POSITION-29 "-0.0084375"
*MEAS_COND_AXIS_POSITION-3 "0.0000"
*MEAS_COND_AXIS_POSITION-30 "Cu_K-beta"
*MEAS_COND_AXIS_POSITION-31 "PSA_open"
*MEAS_COND_AXIS_POSITION-32 "Soller_slit_2.5deg"
*MEAS_COND_AXIS_POSITION-33 "1.100mm"
*MEAS_COND_AXIS_POSITION-34 "1.1"
*MEAS_COND_AXIS_POSITION-35 "1.100mm"
*MEAS_COND_AXIS_POSITION-36 "AC"
*MEAS_COND_AXIS_POSITION-37 ""
*MEAS_COND_AXIS_POSITION-38 "None"
*MEAS_COND_AXIS_POSITION-39 "None"
*MEAS_COND_AXIS_POSITION-4 "0.0000"
*MEAS_COND_AXIS_POSITION-40 "None"
*MEAS_COND_AXIS_POSITION-41 ""
*MEAS_COND_AXIS_POSITION-42 ""
*MEAS_COND_AXIS_POSITION-43 ""
*MEAS_COND_AXIS_POSITION-44 ""
*MEAS_COND_AXIS_POSITION-45 ""
*MEAS_COND_AXIS_POSITION-46 ""
*MEAS_COND_AXIS_POSITION-47 ""
*MEAS_COND_AXIS_POSITION-48 ""
*MEAS_COND_AXIS_POSITION-49 ""
*MEAS_COND_AXIS_POSITION-5 "0.0000"
*MEAS_COND_AXIS_POSITION-50 ""
*MEAS_COND_AXIS_POSITION-51 ""
*MEAS_COND_AXIS_POSITION-52 ""
*MEAS_COND_AXIS_POSITION-53 ""
*MEAS_COND_AXIS_POSITION-54 ""
*MEAS_COND_AXIS_POSITION-55 ""
*MEAS_COND_AXIS_POSITION-56 ""
*MEAS_COND_AXIS_POSITION-57 ""
*MEAS_COND_AXIS_POSITION-58 ""
*MEAS_COND_AXIS_POSITION-59 ""
*MEAS_COND_AXIS_POSITION-6 "0.0000"
*MEAS_COND_AXIS_POSITION-60 ""
*MEAS_COND_AXIS_POSITION-61 ""
*MEAS_COND_AXIS_POSITION-62 ""
*MEAS_COND_AXIS_POSITION-63 ""
*MEAS_COND_AXIS_POSITION-64 ""
*MEAS_COND_AXIS_POSITION-65 ""
*MEAS_COND_AXIS_POSITION-66 ""
*MEAS_COND_AXIS_POSITION-67 ""
*MEAS_COND_AXIS_POSITION-68 ""
*MEAS_COND_AXIS_POSITION-69 ""
*MEAS_COND_AXIS_POSITION-7 "0.4552500"
*MEAS_COND_AXIS_POSITION-70 ""
*MEAS_COND_AXIS_POSITION-71 ""
*MEAS_COND_AXIS_POSITION-72 ""
*MEAS_COND_AXIS_POSITION-73 ""
*MEAS_COND_AXIS_POSITION-74 ""
*MEAS_COND_AXIS_POSITION-75 ""
*MEAS_COND_AXIS_POSITION-76 ""
*MEAS_COND_AXIS_POSITION-77 ""
*MEAS_COND_AXIS_POSITION-78 ""
*MEAS_COND_AXIS_POSITION-79 ""
*MEAS_COND_AXIS_POSITION-8 "Right"
*MEAS_COND_AXIS_POSITION-80 ""
*MEAS_COND_AXIS_POSITION-81 ""
*MEAS_COND_AXIS_POSITION-82 ""
*MEAS_COND_AXIS_POSITION-83 ""
*MEAS_COND_AXIS_POSITION-84 ""
*MEAS_COND_AXIS_POSITION-85 ""
*MEAS_COND_AXIS_POSITION-86 ""
*MEAS_COND_AXIS_POSITION-87 ""
*MEAS_COND_AXIS_POSITION-88 ""
*MEAS_COND_AXIS_POSITION-89 "1"
*MEAS_COND_AXIS_POSITION-9 "None"
*MEAS_COND_AXIS_POSITION-90 "Standard"
*MEAS_COND_AXIS_POSITION-91 "IPS_adaptor"
*MEAS_COND_AXIS_POSITION-92 "PSA_open"
*MEAS_COND_AXIS_POSITION-93 "None"
*MEAS_COND_AXIS_UNIT-0 "deg"
*MEAS_COND_AXIS_UNIT-1 "deg"
*MEAS_COND_AXIS_UNIT-10 ""
*MEAS_COND_AXIS_UNIT-11 "pulse"
*MEAS_COND_AXIS_UNIT-12 ""
*MEAS_COND_AXIS_UNIT-13 ""
*MEAS_COND_AXIS_UNIT-14 ""
*MEAS_COND_AXIS_UNIT-15 "mm"
*MEAS_COND_AXIS_UNIT-16 ""
*MEAS_COND_AXIS_UNIT-17 "mm"
*MEAS_COND_AXIS_UNIT-18 ""
*MEAS_COND_AXIS_UNIT-19 ""
*MEAS_COND_AXIS_UNIT-2 "deg"
*MEAS_COND_AXIS_UNIT-20 ""
*MEAS_COND_AXIS_UNIT-21 "deg"
*MEAS_COND_AXIS_UNIT-22 "deg"
*MEAS_COND_AXIS_UNIT-23 "mm"
*MEAS_COND_AXIS_UNIT-24 "deg"
*MEAS_COND_AXIS_UNIT-25 "deg"
*MEAS_COND_AXIS_UNIT-26 ""
*MEAS_COND_AXIS_UNIT-27 "mm"
*MEAS_COND_AXIS_UNIT-28 ""
*MEAS_COND_AXIS_UNIT-29 "mm"
*MEAS_COND_AXIS_UNIT-3 "deg"
*MEAS_COND_AXIS_UNIT-30 ""
*MEAS_COND_AXIS_UNIT-31 ""
*MEAS_COND_AXIS_UNIT-32 ""
*MEAS_COND_AXIS_UNIT-33 ""
*MEAS_COND_AXIS_UNIT-34 "mm"
*MEAS_COND_AXIS_UNIT-35 ""
*MEAS_COND_AXIS_UNIT-36 ""
*MEAS_COND_AXIS_UNIT-37 "keV"
*MEAS_COND_AXIS_UNIT-38 ""
*MEAS_COND_AXIS_UNIT-39 ""
*MEAS_COND_AXIS_UNIT-4 "deg"
*MEAS_COND_AXIS_UNIT-40 ""
*MEAS_COND_AXIS_UNIT-41 "H"
*MEAS_COND_AXIS_UNIT-42 "H"
*MEAS_COND_AXIS_UNIT-43 "H"
*MEAS_COND_AXIS_UNIT-44 "H"
*MEAS_COND_AXIS_UNIT-45 "H"
*MEAS_COND_AXIS_UNIT-46 "mV"
*MEAS_COND_AXIS_UNIT-47 "V"
*MEAS_COND_AXIS_UNIT-48 "V"
*MEAS_COND_AXIS_UNIT-49 "H"
*MEAS_COND_AXIS_UNIT-5 "deg"
*MEAS_COND_AXIS_UNIT-50 "H"
*MEAS_COND_AXIS_UNIT-51 "H"
*MEAS_COND_AXIS_UNIT-52 "H"
*MEAS_COND_AXIS_UNIT-53 "H"
*MEAS_COND_AXIS_UNIT-54 "uS/m"
*MEAS_COND_AXIS_UNIT-55 "L/min"
*MEAS_COND_AXIS_UNIT-56 "degree"
*MEAS_COND_AXIS_UNIT-57 "MPa"
*MEAS_COND_AXIS_UNIT-58 "MPa"
*MEAS_COND_AXIS_UNIT-59 "MPa"
*MEAS_COND_AXIS_UNIT-6 "deg"
*MEAS_COND_AXIS_UNIT-60 "L/min"
*MEAS_COND_AXIS_UNIT-61 "C"
*MEAS_COND_AXIS_UNIT-62 "MPa"
*MEAS_COND_AXIS_UNIT-63 "degree"
*MEAS_COND_AXIS_UNIT-64 "percent"
*MEAS_COND_AXIS_UNIT-65 "degree"
*MEAS_COND_AXIS_UNIT-66 "C"
*MEAS_COND_AXIS_UNIT-67 "H"
*MEAS_COND_AXIS_UNIT-68 "time"
*MEAS_COND_AXIS_UNIT-69 "msec"
*MEAS_COND_AXIS_UNIT-7 "mm"
*MEAS_COND_AXIS_UNIT-70 "msec"
*MEAS_COND_AXIS_UNIT-71 "H"
*MEAS_COND_AXIS_UNIT-72 "times"
*MEAS_COND_AXIS_UNIT-73 "msec"
*MEAS_COND_AXIS_UNIT-74 "msec"
*MEAS_COND_AXIS_UNIT-75 "-"
*MEAS_COND_AXIS_UNIT-76 "-"
*MEAS_COND_AXIS_UNIT-77 "-"
